
# PINGSoft - V filter: KPNO-Harris  CWL: 5375.14A  FWHM: 945.20A
# ---------------------------------------------------------------
# Original information: 
# 
# == Filter Data - Lambda 9 Spectrophotometer ==
#   Kitt Peak National Observatory - NOAO
# ------------------------------------------------
# Filter: K1003 .2NM/15NMPERMIN/1S  440-700NMM
# Date: 07/13/04   Time: 15:47:47  Operator: hs
# cwl=  5375.14A  fwhm= 945.20A  Tmax= 87.73% at  5170.00A
# Tcutoff=  2.00 %  Slitsize = 20 A
# fwhm spans 4902.54A to 5847.74A
# 90%  spans 4996.34A to 5479.55A
# bw90 is  0.511; Tmin90/Tmax is  0.900
# No data smoothing
# Npts= 1301     Disp=  2.00A/Interval

# CWL: 5375.14

#  Wavelength  Transmission
     4400.00      0.00005
     4402.00      0.00000
     4404.00      0.00005
     4406.00      0.00000
     4408.00      0.00005
     4410.00      0.00000
     4412.00      0.00005
     4414.00      0.00005
     4416.00      0.00005
     4418.00      0.00000
     4420.00      0.00000
     4422.00      0.00000
     4424.00      0.00000
     4426.00      0.00000
     4428.00      0.00000
     4430.00      0.00000
     4432.00      0.00005
     4434.00      0.00000
     4436.00      0.00000
     4438.00      0.00000
     4440.00      0.00000
     4442.00      0.00000
     4444.00      0.00000
     4446.00      0.00000
     4448.00      0.00000
     4450.00      0.00000
     4452.00      0.00000
     4454.00      0.00005
     4456.00      0.00000
     4458.00      0.00005
     4460.00      0.00000
     4462.00      0.00005
     4464.00      0.00005
     4466.00      0.00005
     4468.00      0.00005
     4470.00      0.00000
     4472.00      0.00000
     4474.00      0.00000
     4476.00      0.00000
     4478.00      0.00005
     4480.00      0.00000
     4482.00      0.00000
     4484.00      0.00000
     4486.00      0.00000
     4488.00      0.00010
     4490.00      0.00000
     4492.00      0.00005
     4494.00      0.00005
     4496.00      0.00000
     4498.00      0.00000
     4500.00      0.00000
     4502.00      0.00000
     4504.00      0.00000
     4506.00      0.00000
     4508.00      0.00005
     4510.00      0.00000
     4512.00      0.00005
     4514.00      0.00005
     4516.00      0.00000
     4518.00      0.00000
     4520.00      0.00005
     4522.00      0.00005
     4524.00      0.00000
     4526.00      0.00000
     4528.00      0.00005
     4530.00      0.00005
     4532.00      0.00005
     4534.00      0.00000
     4536.00      0.00005
     4538.00      0.00000
     4540.00      0.00005
     4542.00      0.00000
     4544.00      0.00005
     4546.00      0.00005
     4548.00      0.00000
     4550.00      0.00005
     4552.00      0.00005
     4554.00      0.00000
     4556.00      0.00000
     4558.00      0.00005
     4560.00      0.00000
     4562.00      0.00000
     4564.00      0.00005
     4566.00      0.00000
     4568.00      0.00000
     4570.00      0.00005
     4572.00      0.00005
     4574.00      0.00005
     4576.00      0.00000
     4578.00      0.00000
     4580.00      0.00000
     4582.00      0.00000
     4584.00      0.00000
     4586.00      0.00005
     4588.00      0.00000
     4590.00      0.00000
     4592.00      0.00005
     4594.00      0.00000
     4596.00      0.00000
     4598.00      0.00000
     4600.00      0.00000
     4602.00      0.00000
     4604.00      0.00005
     4606.00      0.00000
     4608.00      0.00000
     4610.00      0.00000
     4612.00      0.00000
     4614.00      0.00000
     4616.00      0.00000
     4618.00      0.00000
     4620.00      0.00005
     4622.00      0.00000
     4624.00      0.00000
     4626.00      0.00000
     4628.00      0.00000
     4630.00      0.00000
     4632.00      0.00000
     4634.00      0.00000
     4636.00      0.00000
     4638.00      0.00000
     4640.00      0.00000
     4642.00      0.00000
     4644.00      0.00005
     4646.00      0.00000
     4648.00      0.00000
     4650.00      0.00000
     4652.00      0.00000
     4654.00      0.00000
     4656.00      0.00000
     4658.00      0.00000
     4660.00      0.00005
     4662.00      0.00000
     4664.00      0.00000
     4666.00      0.00000
     4668.00      0.00005
     4670.00      0.00000
     4672.00      0.00000
     4674.00      0.00005
     4676.00      0.00000
     4678.00      0.00000
     4680.00      0.00000
     4682.00      0.00000
     4684.00      0.00000
     4686.00      0.00000
     4688.00      0.00000
     4690.00      0.00000
     4692.00      0.00000
     4694.00      0.00005
     4696.00      0.00000
     4698.00      0.00000
     4700.00      0.00000
     4702.00      0.00000
     4704.00      0.00000
     4706.00      0.00000
     4708.00      0.00000
     4710.00      0.00000
     4712.00      0.00000
     4714.00      0.00000
     4716.00      0.00000
     4718.00      0.00000
     4720.00      0.00005
     4722.00      0.00000
     4724.00      0.00000
     4726.00      0.00000
     4728.00      0.00005
     4730.00      0.00000
     4732.00      0.00000
     4734.00      0.00005
     4736.00      0.00000
     4738.00      0.00000
     4740.00      0.00000
     4742.00      0.00000
     4744.00      0.00000
     4746.00      0.00000
     4748.00      0.00000
     4750.00      0.00005
     4752.00      0.00000
     4754.00      0.00005
     4756.00      0.00005
     4758.00      0.00005
     4760.00      0.00005
     4762.00      0.00005
     4764.00      0.00005
     4766.00      0.00005
     4768.00      0.00005
     4770.00      0.00015
     4772.00      0.00015
     4774.00      0.00025
     4776.00      0.00025
     4778.00      0.00035
     4780.00      0.00040
     4782.00      0.00055
     4784.00      0.00070
     4786.00      0.00090
     4788.00      0.00105
     4790.00      0.00130
     4792.00      0.00165
     4794.00      0.00210
     4796.00      0.00250
     4798.00      0.00305
     4800.00      0.00375
     4802.00      0.00445
     4804.00      0.00535
     4806.00      0.00655
     4808.00      0.00770
     4810.00      0.00910
     4812.00      0.01075
     4814.00      0.01275
     4816.00      0.01490
     4818.00      0.01755
     4820.00      0.01980
     4822.00      0.02315
     4824.00      0.02635
     4826.00      0.03045
     4828.00      0.03450
     4830.00      0.03855
     4832.00      0.04380
     4834.00      0.04920
     4836.00      0.05485
     4838.00      0.06145
     4840.00      0.06790
     4842.00      0.07580
     4844.00      0.08345
     4846.00      0.09200
     4848.00      0.10035
     4850.00      0.10935
     4852.00      0.11925
     4854.00      0.12910
     4856.00      0.13965
     4858.00      0.15030
     4860.00      0.16085
     4862.00      0.17200
     4864.00      0.18430
     4866.00      0.19670
     4868.00      0.20855
     4870.00      0.22125
     4872.00      0.23325
     4874.00      0.24705
     4876.00      0.26130
     4878.00      0.27290
     4880.00      0.28545
     4882.00      0.29975
     4884.00      0.31325
     4886.00      0.32720
     4888.00      0.34215
     4890.00      0.35465
     4892.00      0.36845
     4894.00      0.38115
     4896.00      0.39485
     4898.00      0.40930
     4900.00      0.42190
     4902.00      0.43530
     4904.00      0.44770
     4906.00      0.46025
     4908.00      0.47240
     4910.00      0.48485
     4912.00      0.49765
     4914.00      0.50785
     4916.00      0.51995
     4918.00      0.52975
     4920.00      0.54095
     4922.00      0.55195
     4924.00      0.56165
     4926.00      0.57205
     4928.00      0.58045
     4930.00      0.59180
     4932.00      0.59985
     4934.00      0.60795
     4936.00      0.61865
     4938.00      0.62600
     4940.00      0.63590
     4942.00      0.64355
     4944.00      0.65200
     4946.00      0.65695
     4948.00      0.66725
     4950.00      0.67470
     4952.00      0.68180
     4954.00      0.68700
     4956.00      0.69360
     4958.00      0.70070
     4960.00      0.70815
     4962.00      0.71380
     4964.00      0.71915
     4966.00      0.72475
     4968.00      0.73055
     4970.00      0.73570
     4972.00      0.74000
     4974.00      0.74640
     4976.00      0.74965
     4978.00      0.75430
     4980.00      0.75875
     4982.00      0.76265
     4984.00      0.76625
     4986.00      0.77200
     4988.00      0.77640
     4990.00      0.77875
     4992.00      0.78135
     4994.00      0.78535
     4996.00      0.78885
     4998.00      0.79310
     5000.00      0.79545
     5002.00      0.79940
     5004.00      0.80270
     5006.00      0.80515
     5008.00      0.80915
     5010.00      0.81085
     5012.00      0.81200
     5014.00      0.81330
     5016.00      0.81570
     5018.00      0.81890
     5020.00      0.82150
     5022.00      0.82290
     5024.00      0.82580
     5026.00      0.82775
     5028.00      0.82910
     5030.00      0.83145
     5032.00      0.83305
     5034.00      0.83420
     5036.00      0.83730
     5038.00      0.83900
     5040.00      0.84045
     5042.00      0.84175
     5044.00      0.84150
     5046.00      0.84390
     5048.00      0.84470
     5050.00      0.84540
     5052.00      0.84745
     5054.00      0.84830
     5056.00      0.85150
     5058.00      0.85110
     5060.00      0.85200
     5062.00      0.85390
     5064.00      0.85330
     5066.00      0.85605
     5068.00      0.85530
     5070.00      0.85620
     5072.00      0.85720
     5074.00      0.85775
     5076.00      0.85860
     5078.00      0.86000
     5080.00      0.86030
     5082.00      0.85960
     5084.00      0.86235
     5086.00      0.86325
     5088.00      0.86480
     5090.00      0.86470
     5092.00      0.86325
     5094.00      0.86745
     5096.00      0.86645
     5098.00      0.86555
     5100.00      0.86575
     5102.00      0.86780
     5104.00      0.86855
     5106.00      0.86775
     5108.00      0.86815
     5110.00      0.86870
     5112.00      0.87030
     5114.00      0.86845
     5116.00      0.86935
     5118.00      0.87200
     5120.00      0.87230
     5122.00      0.87025
     5124.00      0.87020
     5126.00      0.87240
     5128.00      0.87365
     5130.00      0.87315
     5132.00      0.87350
     5134.00      0.87440
     5136.00      0.87255
     5138.00      0.87365
     5140.00      0.87480
     5142.00      0.87510
     5144.00      0.87350
     5146.00      0.87420
     5148.00      0.87255
     5150.00      0.87115
     5152.00      0.87560
     5154.00      0.87560
     5156.00      0.87325
     5158.00      0.87375
     5160.00      0.87405
     5162.00      0.87465
     5164.00      0.87310
     5166.00      0.87430
     5168.00      0.87600
     5170.00      0.87730
     5172.00      0.87485
     5174.00      0.87365
     5176.00      0.87515
     5178.00      0.87270
     5180.00      0.87600
     5182.00      0.87385
     5184.00      0.87580
     5186.00      0.87580
     5188.00      0.87570
     5190.00      0.87510
     5192.00      0.87430
     5194.00      0.87365
     5196.00      0.87355
     5198.00      0.87390
     5200.00      0.87670
     5202.00      0.87700
     5204.00      0.87305
     5206.00      0.87255
     5208.00      0.87550
     5210.00      0.87590
     5212.00      0.87315
     5214.00      0.87350
     5216.00      0.87500
     5218.00      0.87195
     5220.00      0.87390
     5222.00      0.87445
     5224.00      0.87175
     5226.00      0.87335
     5228.00      0.87175
     5230.00      0.87265
     5232.00      0.86965
     5234.00      0.87305
     5236.00      0.87215
     5238.00      0.86930
     5240.00      0.87065
     5242.00      0.87150
     5244.00      0.87050
     5246.00      0.87125
     5248.00      0.86965
     5250.00      0.86810
     5252.00      0.86825
     5254.00      0.87060
     5256.00      0.87015
     5258.00      0.86720
     5260.00      0.86715
     5262.00      0.86725
     5264.00      0.86670
     5266.00      0.86930
     5268.00      0.86880
     5270.00      0.86810
     5272.00      0.86505
     5274.00      0.86610
     5276.00      0.86455
     5278.00      0.86195
     5280.00      0.86290
     5282.00      0.86710
     5284.00      0.86650
     5286.00      0.86480
     5288.00      0.86135
     5290.00      0.86385
     5292.00      0.86290
     5294.00      0.86470
     5296.00      0.86240
     5298.00      0.86020
     5300.00      0.86095
     5302.00      0.85985
     5304.00      0.86140
     5306.00      0.86080
     5308.00      0.86055
     5310.00      0.85825
     5312.00      0.86000
     5314.00      0.85710
     5316.00      0.85845
     5318.00      0.85545
     5320.00      0.85755
     5322.00      0.85340
     5324.00      0.85475
     5326.00      0.85630
     5328.00      0.85575
     5330.00      0.85420
     5332.00      0.85315
     5334.00      0.85270
     5336.00      0.85130
     5338.00      0.85115
     5340.00      0.85070
     5342.00      0.84910
     5344.00      0.84980
     5346.00      0.84955
     5348.00      0.84765
     5350.00      0.84870
     5352.00      0.84530
     5354.00      0.84580
     5356.00      0.84635
     5358.00      0.84485
     5360.00      0.84565
     5362.00      0.84165
     5364.00      0.84075
     5366.00      0.84355
     5368.00      0.84040
     5370.00      0.84225
     5372.00      0.84065
     5374.00      0.83835
     5376.00      0.83915
     5378.00      0.83990
     5380.00      0.83865
     5382.00      0.83820
     5384.00      0.83725
     5386.00      0.83275
     5388.00      0.83045
     5390.00      0.83315
     5392.00      0.83315
     5394.00      0.83195
     5396.00      0.83140
     5398.00      0.83195
     5400.00      0.82900
     5402.00      0.82700
     5404.00      0.82510
     5406.00      0.82585
     5408.00      0.82795
     5410.00      0.82475
     5412.00      0.82530
     5414.00      0.82590
     5416.00      0.82075
     5418.00      0.82350
     5420.00      0.82155
     5422.00      0.82050
     5424.00      0.81930
     5426.00      0.81765
     5428.00      0.81625
     5430.00      0.81440
     5432.00      0.81155
     5434.00      0.81255
     5436.00      0.81245
     5438.00      0.81275
     5440.00      0.81025
     5442.00      0.81250
     5444.00      0.81210
     5446.00      0.81150
     5448.00      0.80600
     5450.00      0.80545
     5452.00      0.80505
     5454.00      0.80715
     5456.00      0.80050
     5458.00      0.80340
     5460.00      0.79880
     5462.00      0.80115
     5464.00      0.80225
     5466.00      0.79840
     5468.00      0.79810
     5470.00      0.79630
     5472.00      0.79740
     5474.00      0.79400
     5476.00      0.79130
     5478.00      0.79050
     5480.00      0.78930
     5482.00      0.78760
     5484.00      0.78630
     5486.00      0.78735
     5488.00      0.78710
     5490.00      0.78440
     5492.00      0.78180
     5494.00      0.78305
     5496.00      0.78165
     5498.00      0.77965
     5500.00      0.78010
     5502.00      0.77920
     5504.00      0.77700
     5506.00      0.77715
     5508.00      0.77185
     5510.00      0.77285
     5512.00      0.77000
     5514.00      0.76960
     5516.00      0.76685
     5518.00      0.76900
     5520.00      0.76315
     5522.00      0.76370
     5524.00      0.76325
     5526.00      0.76150
     5528.00      0.76265
     5530.00      0.75915
     5532.00      0.75920
     5534.00      0.75920
     5536.00      0.75300
     5538.00      0.75115
     5540.00      0.74930
     5542.00      0.74995
     5544.00      0.74775
     5546.00      0.74620
     5548.00      0.74365
     5550.00      0.74420
     5552.00      0.74305
     5554.00      0.74225
     5556.00      0.74380
     5558.00      0.73565
     5560.00      0.73775
     5562.00      0.73445
     5564.00      0.73130
     5566.00      0.73295
     5568.00      0.73195
     5570.00      0.73085
     5572.00      0.72770
     5574.00      0.72690
     5576.00      0.72225
     5578.00      0.72235
     5580.00      0.72175
     5582.00      0.71785
     5584.00      0.71755
     5586.00      0.71800
     5588.00      0.71445
     5590.00      0.71220
     5592.00      0.71080
     5594.00      0.70900
     5596.00      0.70690
     5598.00      0.70370
     5600.00      0.70410
     5602.00      0.70380
     5604.00      0.70220
     5606.00      0.69895
     5608.00      0.69840
     5610.00      0.69485
     5612.00      0.69475
     5614.00      0.69370
     5616.00      0.69205
     5618.00      0.68940
     5620.00      0.68445
     5622.00      0.68385
     5624.00      0.68085
     5626.00      0.67875
     5628.00      0.68020
     5630.00      0.67940
     5632.00      0.67685
     5634.00      0.67385
     5636.00      0.67215
     5638.00      0.67045
     5640.00      0.66860
     5642.00      0.66810
     5644.00      0.66445
     5646.00      0.66365
     5648.00      0.66005
     5650.00      0.66115
     5652.00      0.65890
     5654.00      0.65330
     5656.00      0.65390
     5658.00      0.64955
     5660.00      0.65005
     5662.00      0.64685
     5664.00      0.64445
     5666.00      0.64495
     5668.00      0.63975
     5670.00      0.63830
     5672.00      0.63835
     5674.00      0.63450
     5676.00      0.63390
     5678.00      0.63165
     5680.00      0.62710
     5682.00      0.62850
     5684.00      0.62645
     5686.00      0.62335
     5688.00      0.62180
     5690.00      0.61775
     5692.00      0.61700
     5694.00      0.61370
     5696.00      0.61300
     5698.00      0.61005
     5700.00      0.60800
     5702.00      0.60435
     5704.00      0.60465
     5706.00      0.60080
     5708.00      0.59945
     5710.00      0.59770
     5712.00      0.59585
     5714.00      0.59365
     5716.00      0.58950
     5718.00      0.58905
     5720.00      0.58785
     5722.00      0.58370
     5724.00      0.58235
     5726.00      0.57920
     5728.00      0.57825
     5730.00      0.57510
     5732.00      0.57570
     5734.00      0.57155
     5736.00      0.56860
     5738.00      0.56700
     5740.00      0.56600
     5742.00      0.56190
     5744.00      0.56080
     5746.00      0.55795
     5748.00      0.55645
     5750.00      0.55320
     5752.00      0.54985
     5754.00      0.54690
     5756.00      0.54670
     5758.00      0.54425
     5760.00      0.54230
     5762.00      0.53915
     5764.00      0.53530
     5766.00      0.53385
     5768.00      0.53285
     5770.00      0.52905
     5772.00      0.52995
     5774.00      0.52605
     5776.00      0.52535
     5778.00      0.52060
     5780.00      0.51745
     5782.00      0.51535
     5784.00      0.51410
     5786.00      0.51140
     5788.00      0.50935
     5790.00      0.50675
     5792.00      0.50400
     5794.00      0.50220
     5796.00      0.49855
     5798.00      0.49650
     5800.00      0.49520
     5802.00      0.49130
     5804.00      0.49050
     5806.00      0.48730
     5808.00      0.48545
     5810.00      0.48155
     5812.00      0.47990
     5814.00      0.47780
     5816.00      0.47595
     5818.00      0.47265
     5820.00      0.47180
     5822.00      0.46855
     5824.00      0.46685
     5826.00      0.46430
     5828.00      0.46060
     5830.00      0.45775
     5832.00      0.45625
     5834.00      0.45500
     5836.00      0.45125
     5838.00      0.45075
     5840.00      0.44735
     5842.00      0.44510
     5844.00      0.44270
     5846.00      0.44000
     5848.00      0.43845
     5850.00      0.43545
     5852.00      0.43270
     5854.00      0.43180
     5856.00      0.42875
     5858.00      0.42565
     5860.00      0.42360
     5862.00      0.42065
     5864.00      0.41915
     5866.00      0.41595
     5868.00      0.41420
     5870.00      0.41035
     5872.00      0.40800
     5874.00      0.40705
     5876.00      0.40460
     5878.00      0.40190
     5880.00      0.39835
     5882.00      0.39780
